SCM Lock-In Phase, dC/dV Amplitude , dC/dV Q 
-180.00000 36.98730 -20.75195
-179.29688 22.76611 -3.90625
-178.59375 22.76611 -3.90625
-177.89063 25.32959 -2.44141
-177.18750 9.33838 -5.85938
-176.48438 9.46045 1.70898
-175.78125 9.46045 1.70898
-175.07813 20.62988 -20.01953
-174.37500 33.56934 -32.71484
-173.67188 21.85059 -20.01953
-172.96875 21.85059 -20.01953
-172.26563 54.44336 -54.19922
-171.56250 21.78955 -21.48438
-170.85938 50.53711 -48.58398
-170.15625 5.85938 -4.15039
-169.45313 5.85938 -4.15039
-168.75000 18.55469 4.63867
-168.04688 10.55908 -10.49805
-167.34375 14.34326 4.39453
-166.64063 14.34326 4.39453
-165.93750 2.25830 -2.19727
-165.23438 16.66260 2.92969
-164.53125 41.44287 -7.56836
-163.82813 41.44287 -7.56836
-163.12500 52.12402 -28.80859
-162.42188 13.61084 10.74219
-161.71875 13.85498 1.22070
-161.01563 26.24512 -12.93945
-160.31250 26.24512 -12.93945
-159.60938 26.97754 -26.12305
-158.90625 61.64551 25.39063
-158.20313 27.09961 -23.43750
-157.50000 27.09961 -23.43750
-156.79688 36.19385 11.47461
-156.09375 18.49365 -13.67188
-155.39063 3.90625 1.70898
-154.68750 3.90625 1.70898
-153.98438 19.40918 -15.86914
-153.28125 10.31494 -8.78906
-152.57813 27.77100 -27.09961
-151.87500 31.12793 19.53125
-151.17188 31.12793 19.53125
-150.46875 29.41895 -27.09961
-149.76563 43.94531 -38.81836
-149.06250 39.73389 -38.33008
-148.35938 39.73389 -38.33008
-147.65625 41.32080 -27.09961
-146.95313 23.13232 16.35742
-146.25000 13.18359 0.48828
-145.54688 13.18359 0.48828
-144.84375 13.24463 -9.03320
-144.14063 44.12842 -42.72461
-143.43750 5.24902 2.44141
-142.73438 41.07666 -39.30664
-142.03125 41.07666 -39.30664
-141.32813 29.23584 -10.98633
-140.62500 5.61523 -0.24414
-139.92188 21.36230 5.85938
-139.21875 21.36230 5.85938
-138.51563 17.63916 -5.37109
-137.81250 23.01025 -13.91602
-137.10938 4.15039 -1.46484
-136.40625 48.58398 -1.95313
-135.70313 48.58398 -1.95313
-135.00000 45.16602 -19.53125
-134.29688 26.67236 -26.12305
-133.59375 15.68604 1.95313
-132.89063 15.68604 1.95313
-132.18750 34.91211 -31.49414
-131.48438 14.64844 2.44141
-130.78125 29.66309 -25.14648
-130.07813 29.66309 -25.14648
-129.37500 6.89697 -5.85938
-128.67188 47.66846 -47.85156
-127.96875 34.60693 24.41406
-127.26563 44.98291 -45.16602
-126.56250 44.98291 -45.16602
-125.85938 29.72412 -16.11328
-125.15625 10.98633 10.98633
-124.45313 9.82666 6.59180
-123.75000 9.82666 6.59180
-123.04688 27.46582 -26.36719
-122.34375 16.60156 -13.18359
-121.64063 9.82666 -4.39453
-120.93750 9.82666 -4.39453
-120.23438 41.80908 -6.10352
-119.53125 17.82227 -11.47461
-118.82813 21.30127 15.13672
-118.12500 2.38037 1.95313
-117.42188 2.38037 1.95313
-116.71875 35.21729 -35.40039
-116.01563 36.62109 35.15625
-115.31250 34.05762 -19.04297
-114.60938 34.05762 -19.04297
-113.90625 56.45752 -30.02930
-113.20313 15.25879 10.98633
-112.50000 7.75146 7.08008
-111.79688 7.75146 7.08008
-111.09375 40.22217 -7.56836
-110.39063 35.82764 -2.92969
-109.68750 32.10449 -10.49805
-108.98438 28.07617 -25.14648
-108.28125 28.07617 -25.14648
-107.57813 13.48877 -6.34766
-106.87500 5.12695 -4.88281
-106.17188 27.03857 1.22070
-105.46875 27.03857 1.22070
-104.76563 30.82275 -28.80859
-104.06250 31.92139 -7.32422
-103.35938 62.13379 -25.14648
-102.65625 62.13379 -25.14648
-101.95313 35.40039 -6.59180
-101.25000 11.47461 -7.56836
-100.54688 28.80859 -3.90625
-99.84375 53.40576 -30.27344
-99.14063 53.40576 -30.27344
-98.43750 14.34326 -12.45117
-97.73438 18.73779 18.06641
-97.03125 37.17041 -36.62109
-96.32813 37.17041 -36.62109
-95.62500 17.39502 -14.89258
-94.92188 44.92188 -1.22070
-94.21875 15.56396 -15.62500
-93.51563 15.56396 -15.62500
-92.81250 8.23975 0.73242
-92.10938 30.09033 -23.19336
-91.40625 46.44775 -41.01563
-90.70313 15.25879 -14.64844
-90.00000 15.25879 -14.64844
-89.29688 24.53613 6.10352
-88.59375 25.51270 -24.90234
-87.89063 16.84570 -16.60156
-87.18750 16.84570 -16.60156
-86.48438 31.86035 18.06641
-85.78125 35.52246 13.42773
-85.07813 11.90186 -3.66211
-84.37500 11.90186 -3.66211
-83.67188 31.86035 -14.16016
-82.96875 41.07666 4.63867
-82.26563 26.73340 2.19727
-81.56250 33.99658 -34.17969
-80.85938 33.99658 -34.17969
-80.15625 55.66406 37.84180
-79.45313 27.28271 20.99609
-78.75000 51.26953 35.88867
-78.04688 51.26953 35.88867
-77.34375 34.60693 32.47070
-76.64063 55.23682 -54.68750
-75.93750 29.78516 14.64844
-75.23438 29.78516 14.64844
-74.53125 27.95410 -20.01953
-73.82813 34.42383 -10.98633
-73.12500 24.23096 2.19727
-72.42188 19.40918 -16.11328
-71.71875 19.40918 -16.11328
-71.01563 43.21289 8.30078
-70.31250 29.96826 -8.30078
-69.60938 23.55957 -17.82227
-68.90625 23.55957 -17.82227
-68.20313 10.92529 10.25391
-67.50000 42.48047 0.24414
-66.79688 7.99561 -7.56836
-66.09375 33.02002 -32.71484
-65.39063 33.02002 -32.71484
-64.68750 20.75195 -15.13672
-63.98438 26.30615 -21.72852
-63.28125 6.95801 -5.12695
-62.57813 6.95801 -5.12695
-61.87500 5.06592 -1.22070
-61.17188 30.09033 -12.45117
-60.46875 15.74707 13.91602
-59.76563 15.74707 13.91602
-59.06250 38.69629 25.39063
-58.35938 64.39209 27.34375
-57.65625 18.12744 -4.15039
-56.95313 16.05225 14.16016
-56.25000 16.05225 14.16016
-55.54688 39.79492 33.93555
-54.84375 32.22656 3.90625
-54.14063 12.75635 -8.30078
-53.43750 12.75635 -8.30078
-52.73438 17.57813 -17.82227
-52.03125 15.68604 -15.62500
-51.32813 32.71484 -31.98242
-50.62500 32.71484 -31.98242
-49.92188 21.11816 5.61523
-49.21875 13.36670 -2.68555
-48.51563 25.26855 -4.15039
-47.81250 14.83154 -12.69531
-47.10938 14.83154 -12.69531
-46.40625 19.47021 18.06641
-45.70313 19.95850 -13.18359
-45.00000 52.91748 29.54102
-44.29688 52.91748 29.54102
-43.59375 30.33447 -15.38086
-42.89063 6.34766 3.90625
-42.18750 11.47461 -8.30078
-41.48438 11.47461 -8.30078
-40.78125 26.97754 -0.48828
-40.07813 27.58789 -3.90625
-39.37500 12.02393 5.61523
-38.67188 46.38672 -17.57813
-37.96875 46.38672 -17.57813
-37.26563 17.21191 7.81250
-36.56250 10.74219 -7.32422
-35.85938 28.99170 19.28711
-35.15625 28.99170 19.28711
-34.45313 33.75244 10.00977
-33.75000 7.62939 2.92969
-33.04688 37.65869 -29.54102
-32.34375 37.65869 -29.54102
-31.64063 19.04297 19.04297
-30.93750 61.27930 -47.85156
-30.23438 6.95801 2.44141
-29.53125 4.45557 2.92969
-28.82813 4.45557 2.92969
-28.12500 28.44238 2.19727
-27.42188 28.19824 18.79883
-26.71875 7.81250 -7.81250
-26.01563 7.81250 -7.81250
-25.31250 13.67188 13.18359
-24.60938 25.20752 -13.18359
-23.90625 31.31104 28.56445
-23.20313 31.31104 28.56445
-22.50000 22.94922 16.60156
-21.79688 48.88916 -39.06250
-21.09375 26.79443 25.39063
-20.39063 35.70557 34.66797
-19.68750 35.70557 34.66797
-18.98438 16.66260 -13.42773
-18.28125 23.25439 -13.18359
-17.57813 43.70117 -18.55469
-16.87500 43.70117 -18.55469
-16.17188 33.81348 3.90625
-15.46875 39.42871 -10.98633
-14.76563 20.99609 16.35742
-14.06250 20.99609 16.35742
-13.35938 16.35742 16.35742
-12.65625 42.48047 -8.30078
-11.95313 17.15088 10.74219
-11.25000 20.93506 -3.66211
-10.54688 20.93506 -3.66211
-9.84375 31.92139 12.20703
-9.14063 28.44238 8.05664
-8.43750 19.47021 -4.39453
-7.73438 19.47021 -4.39453
-7.03125 30.63965 -11.47461
-6.32813 29.96826 15.38086
-5.62500 19.28711 18.79883
-4.92188 19.28711 18.79883
-4.21875 21.60645 16.11328
-3.51563 11.59668 -10.98633
-2.81250 28.62549 -27.09961
-2.10938 53.58887 -30.02930
-1.40625 53.58887 -30.02930
-0.70313 13.97705 -9.52148
0.00000 25.45166 -23.43750
0.70313 32.77588 10.98633
1.40625 32.77588 10.98633
2.10938 38.57422 -20.75195
2.81250 19.47021 -15.62500
3.51563 33.50830 27.58789
4.21875 3.17383 -0.24414
4.92188 3.17383 -0.24414
5.62500 17.82227 -7.56836
6.32813 26.73340 0.73242
7.03125 17.76123 -12.69531
7.73438 17.76123 -12.69531
8.43750 16.78467 -16.84570
9.14063 35.46143 -35.40039
9.84375 14.16016 11.71875
10.54688 14.16016 11.71875
11.25000 30.63965 -30.51758
11.95313 51.51367 49.56055
12.65625 27.22168 -24.65820
13.35938 19.22607 19.04297
14.06250 19.22607 19.04297
14.76563 22.15576 7.32422
15.46875 12.20703 -8.30078
16.17188 36.43799 15.13672
16.87500 36.43799 15.13672
17.57813 15.56396 -15.62500
18.28125 41.25977 18.79883
18.98438 46.87500 45.41016
19.68750 46.87500 45.41016
20.39063 10.07080 -2.68555
21.09375 25.14648 20.01953
21.79688 14.83154 7.56836
22.50000 22.76611 11.23047
23.20313 22.76611 11.23047
23.90625 21.24023 -7.32422
24.60938 28.44238 20.75195
25.31250 23.01025 21.72852
26.01563 23.01025 21.72852
26.71875 22.58301 5.12695
27.42188 41.38184 3.90625
28.12500 5.18799 0.73242
28.82813 5.18799 0.73242
29.53125 45.71533 -13.18359
30.23438 23.68164 17.82227
30.93750 26.91650 -7.56836
31.64063 13.61084 5.61523
32.34375 13.61084 5.61523
33.04688 24.53613 23.43750
33.75000 34.97314 33.69141
34.45313 24.59717 -23.19336
35.15625 24.59717 -23.19336
35.85938 79.40674 51.02539
36.56250 29.78516 -29.78516
37.26563 37.71973 24.41406
37.96875 37.71973 24.41406
38.67188 9.76563 -10.00977
39.37500 24.84131 -24.65820
40.07813 22.21680 0.24414
40.78125 34.97314 31.49414
41.48438 34.97314 31.49414
42.18750 26.12305 -22.70508
42.89063 50.72021 -8.54492
43.59375 14.95361 2.19727
44.29688 14.95361 2.19727
45.00000 42.78564 -38.08594
45.70313 3.60107 -3.41797
46.40625 46.81396 -3.66211
47.10938 46.81396 -3.66211
47.81250 27.03857 26.85547
48.51563 10.92529 8.30078
49.21875 11.53564 10.74219
49.92188 34.42383 -25.63477
50.62500 34.42383 -25.63477
51.32813 20.93506 5.85938
52.03125 33.08105 -11.71875
52.73438 1.46484 0.97656
53.43750 1.46484 0.97656
54.14063 35.40039 -15.86914
54.84375 27.89307 -28.07617
55.54688 16.29639 -12.20703
56.25000 16.29639 -12.20703
56.95313 14.89258 -14.64844
57.65625 31.67725 -19.04297
58.35938 16.96777 9.03320
59.06250 42.23633 -13.18359
59.76563 42.23633 -13.18359
60.46875 25.51270 -0.73242
61.17188 26.79443 13.42773
61.87500 17.15088 2.92969
62.57813 17.15088 2.92969
63.28125 28.56445 28.07617
63.98438 38.33008 30.51758
64.68750 57.80029 55.41992
65.39063 57.80029 55.41992
66.09375 7.20215 -2.19727
66.79688 9.27734 9.03320
67.50000 39.67285 33.69141
68.20313 6.16455 5.85938
68.90625 6.16455 5.85938
69.60938 30.45654 -11.47461
70.31250 17.63916 -11.96289
71.01563 34.36279 17.33398
71.71875 34.36279 17.33398
72.42188 34.54590 33.69141
73.12500 10.00977 -10.25391
73.82813 13.18359 -11.96289
74.53125 38.14697 -34.91211
75.23438 38.14697 -34.91211
75.93750 40.71045 11.23047
76.64063 9.39941 8.78906
77.34375 65.79590 64.94141
78.04688 65.79590 64.94141
78.75000 30.45654 13.18359
79.45313 9.82666 -5.37109
80.15625 40.10010 -28.56445
80.85938 40.10010 -28.56445
81.56250 19.65332 3.41797
82.26563 15.13672 -13.67188
82.96875 18.49365 9.52148
83.67188 22.52197 7.08008
84.37500 22.52197 7.08008
85.07813 30.21240 23.68164
85.78125 4.69971 -4.88281
86.48438 64.51416 63.72070
87.18750 64.51416 63.72070
87.89063 14.46533 14.40430
88.59375 34.85107 -33.20313
89.29688 46.26465 -9.76563
90.00000 46.26465 -9.76563
90.70313 36.86523 16.60156
91.40625 31.79932 -30.27344
92.10938 24.04785 -20.01953
92.81250 31.92139 -16.84570
93.51563 31.92139 -16.84570
94.21875 15.93018 15.13672
94.92188 27.03857 -7.08008
95.62500 41.50391 -6.10352
96.32813 41.50391 -6.10352
97.03125 20.62988 16.35742
97.73438 20.01953 9.27734
98.43750 44.98291 35.64453
99.14063 44.98291 35.64453
99.84375 15.56396 8.30078
100.54688 32.47070 24.90234
101.25000 14.40430 10.49805
101.95313 39.67285 9.03320
102.65625 39.67285 9.03320
103.35938 35.27832 28.56445
104.06250 12.87842 -8.54492
104.76563 34.66797 -9.27734
105.46875 34.66797 -9.27734
106.17188 35.64453 21.24023
106.87500 44.92188 12.93945
107.57813 31.73828 -30.51758
108.28125 31.73828 -30.51758
108.98438 53.95508 19.53125
109.68750 35.40039 35.15625
110.39063 38.08594 -33.93555
111.09375 15.86914 14.16016
111.79688 15.86914 14.16016
112.50000 18.43262 -14.89258
113.20313 26.73340 -13.67188
113.90625 31.98242 11.23047
114.60938 31.98242 11.23047
115.31250 33.56934 -19.53125
116.01563 20.75195 -19.77539
116.71875 35.33936 -4.15039
117.42188 35.33936 -4.15039
118.12500 15.44189 -14.40430
118.82813 7.87354 -8.05664
119.53125 27.22168 -20.75195
120.23438 51.20850 19.77539
120.93750 51.20850 19.77539
121.64063 23.80371 -10.98633
122.34375 8.11768 7.81250
123.04688 24.90234 8.05664
123.75000 24.90234 8.05664
124.45313 12.75635 8.78906
125.15625 7.01904 5.12695
125.85938 36.92627 -17.57813
126.56250 36.92627 -17.57813
127.26563 36.31592 -34.17969
127.96875 21.36230 -0.73242
128.67188 22.09473 -22.21680
129.37500 49.86572 23.43750
130.07813 49.86572 23.43750
130.78125 22.70508 -11.96289
131.48438 60.36377 -55.41992
132.18750 6.22559 5.37109
132.89063 6.22559 5.37109
133.59375 17.76123 -13.42773
134.29688 33.14209 -3.66211
135.00000 5.61523 4.15039
135.70313 5.61523 4.15039
136.40625 58.41064 5.61523
137.10938 31.55518 -23.19336
137.81250 35.82764 2.92969
138.51563 34.85107 -34.17969
139.21875 34.85107 -34.17969
139.92188 17.63916 17.33398
140.62500 14.28223 -4.15039
141.32813 25.87891 -21.24023
142.03125 25.87891 -21.24023
142.73438 28.13721 10.00977
143.43750 42.54150 15.13672
144.14063 20.14160 -6.59180
144.84375 24.35303 -20.75195
145.54688 24.35303 -20.75195
146.25000 39.24561 18.55469
146.95313 27.70996 -23.43750
147.65625 12.87842 4.39453
148.35938 12.87842 4.39453
149.06250 27.03857 20.01953
149.76563 12.20703 -6.10352
150.46875 30.57861 -17.08984
151.17188 30.57861 -17.08984
151.87500 41.62598 -39.06250
152.57813 24.65820 0.73242
153.28125 49.80469 -45.16602
153.98438 21.54541 20.01953
154.68750 21.54541 20.01953
155.39063 35.52246 2.68555
156.09375 47.42432 -39.30664
156.79688 14.28223 -10.74219
157.50000 14.28223 -10.74219
158.20313 48.95020 -30.76172
158.90625 16.96777 -11.71875
159.60938 33.20313 29.78516
160.31250 33.20313 29.78516
161.01563 11.23047 0.97656
161.71875 35.15625 34.91211
162.42188 10.55908 1.70898
163.12500 15.44189 -15.62500
163.82813 15.44189 -15.62500
164.53125 7.62939 0.73242
165.23438 53.89404 -51.26953
165.93750 28.38135 -22.94922
166.64063 28.38135 -22.94922
167.34375 25.63477 -14.16016
168.04688 9.33838 -2.19727
168.75000 21.60645 21.48438
169.45313 21.60645 21.48438
170.15625 30.82275 30.76172
170.85938 42.90771 -4.39453
171.56250 21.48438 -5.12695
172.26563 22.70508 6.34766
172.96875 22.70508 6.34766
173.67188 25.14648 19.77539
174.37500 41.13770 -21.24023
175.07813 35.46143 26.61133
175.78125 35.46143 26.61133
176.48438 25.26855 -24.41406
177.18750 40.34424 -36.37695
177.89063 27.16064 9.03320
178.59375 27.16064 9.03320
179.29688 23.19336 11.96289
